é¸îgêî[kHz],RÇÃìdà≥ [V]
0.5,0.3119
0.6,0.3564
0.8,0.4625
1,0.573
2,0.845
3,0.947
3.5,0.976
4,0.978
4.5,0.975
5,0.970
6,0.938
8,0.866
10,0.775
20,0.481
30,0.33
40,0.257
50,0.0248
60,0.1706
80,0.1235
100,0.0908
