コンデンサ[pF],Rの電圧 [V]
1,0.0819
2,0.1942
3,0.3483
4,0.549
5,0.768
6,0.914
7,0.947
8,0.91
9,0.852
10,0.801
20,0.575
30,0.517
40,0.492
50,0.477
60,0.4661
70,0.4614
80,0.4512
90,0.4532
100,0.4511
150,0.4406
200,0.4372
